May 24, 2025   13:25:01
Cyclic Voltammetry
File: c:\python\win\device_jules\experiment_results\cv_1748064273.bin
Data Source:  Experiment
Instrument Model:  CHI760E
Header: CHI760E CV
Note: 

Init E (V) = 0
High E (V) = 0
Low E (V) = -2.2
Init P/N = N
Scan Rate (V/s) = 0.2
Segment = 2
Sample Interval (V) = 0.01
Quiet Time (sec) = 2
Sensitivity (A/V) = 0.1

Segment 1:
Ep = -0.145V
ip = -1.002e-6A
Ah = -1.640e-7C

Ep = -0.435V
ip = -1.159e-6A
Ah = -1.621e-7C

Ep = -1.015V
ip = -3.045e-7A
Ah = -1.719e-8C

Ep = -1.405V
ip = -1.965e-7A
Ah = -2.947e-8C

Segment 2:
Potential/V, Current/A

-0.005, -7.726e-5
-0.015, -7.726e-5
-0.025, -7.756e-5
-0.035, -7.707e-5
-0.045, -7.746e-5
-0.055, -7.726e-5
-0.065, -7.726e-5
-0.075, -7.775e-5
-0.085, -7.805e-5
-0.095, -7.775e-5
-0.105, -7.775e-5
-0.115, -7.775e-5
-0.125, -7.746e-5
-0.135, -7.756e-5
-0.145, -7.854e-5
-0.155, -7.785e-5
-0.165, -7.795e-5
-0.175, -7.775e-5
-0.185, -7.785e-5
-0.195, -7.815e-5
-0.205, -7.834e-5
-0.215, -7.775e-5
-0.225, -7.844e-5
-0.235, -7.805e-5
-0.245, -7.815e-5
-0.255, -7.775e-5
-0.265, -7.864e-5
-0.275, -7.854e-5
-0.285, -7.854e-5
-0.295, -7.913e-5
-0.305, -7.736e-5
-0.315, -7.844e-5
-0.325, -7.854e-5
-0.335, -7.834e-5
-0.345, -7.815e-5
-0.355, -7.785e-5
-0.365, -7.864e-5
-0.375, -7.874e-5
-0.385, -7.884e-5
-0.395, -7.815e-5
-0.405, -7.844e-5
-0.415, -7.982e-5
-0.425, -7.933e-5
-0.435, -8.001e-5
-0.445, -7.962e-5
-0.455, -7.933e-5
-0.465, -7.972e-5
-0.475, -8.001e-5
-0.485, -7.972e-5
-0.495, -7.972e-5
-0.505, -7.893e-5
-0.515, -7.874e-5
-0.525, -7.825e-5
-0.535, -7.874e-5
-0.545, -7.893e-5
-0.555, -7.785e-5
-0.565, -7.785e-5
-0.575, -7.785e-5
-0.585, -7.903e-5
-0.595, -7.923e-5
-0.605, -7.815e-5
-0.615, -7.864e-5
-0.625, -7.825e-5
-0.635, -7.815e-5
-0.645, -7.844e-5
-0.655, -7.893e-5
-0.665, -7.893e-5
-0.675, -7.933e-5
-0.685, -7.874e-5
-0.695, -7.884e-5
-0.705, -7.874e-5
-0.715, -7.805e-5
-0.725, -7.952e-5
-0.735, -7.854e-5
-0.745, -7.785e-5
-0.755, -7.825e-5
-0.765, -7.864e-5
-0.775, -7.834e-5
-0.785, -7.884e-5
-0.795, -7.903e-5
-0.805, -7.854e-5
-0.815, -7.785e-5
-0.825, -7.864e-5
-0.835, -7.864e-5
-0.845, -7.874e-5
-0.855, -7.923e-5
-0.865, -7.893e-5
-0.875, -7.942e-5
-0.885, -7.884e-5
-0.895, -7.884e-5
-0.905, -7.844e-5
-0.915, -7.913e-5
-0.925, -7.933e-5
-0.935, -7.933e-5
-0.945, -7.874e-5
-0.955, -7.913e-5
-0.965, -7.834e-5
-0.975, -7.844e-5
-0.985, -7.864e-5
-0.995, -7.854e-5
-1.005, -7.893e-5
-1.015, -7.933e-5
-1.025, -7.913e-5
-1.035, -7.933e-5
-1.045, -7.903e-5
-1.055, -7.923e-5
-1.065, -7.923e-5
-1.075, -7.884e-5
-1.085, -7.893e-5
-1.095, -7.962e-5
-1.105, -7.913e-5
-1.115, -7.893e-5
-1.125, -7.903e-5
-1.135, -7.775e-5
-1.145, -7.893e-5
-1.155, -7.884e-5
-1.165, -7.972e-5
-1.175, -7.903e-5
-1.185, -7.933e-5
-1.195, -7.992e-5
-1.205, -7.893e-5
-1.215, -7.992e-5
-1.225, -7.913e-5
-1.235, -7.903e-5
-1.245, -7.844e-5
-1.255, -7.942e-5
-1.265, -7.874e-5
-1.275, -7.884e-5
-1.285, -7.884e-5
-1.295, -7.933e-5
-1.305, -7.834e-5
-1.315, -7.854e-5
-1.325, -7.854e-5
-1.335, -7.884e-5
-1.345, -7.844e-5
-1.355, -7.874e-5
-1.365, -7.795e-5
-1.375, -7.874e-5
-1.385, -7.893e-5
-1.395, -7.854e-5
-1.405, -7.913e-5
-1.415, -7.893e-5
-1.425, -7.825e-5
-1.435, -7.805e-5
-1.445, -7.844e-5
-1.455, -7.884e-5
-1.465, -7.844e-5
-1.475, -7.844e-5
-1.485, -7.844e-5
-1.495, -7.884e-5
-1.505, -7.805e-5
-1.515, -7.893e-5
-1.525, -7.805e-5
-1.535, -7.864e-5
-1.545, -7.785e-5
-1.555, -7.775e-5
-1.565, -7.785e-5
-1.575, -7.805e-5
-1.585, -7.815e-5
-1.595, -7.805e-5
-1.605, -7.795e-5
-1.615, -7.854e-5
-1.625, -7.775e-5
-1.635, -7.884e-5
-1.645, -7.893e-5
-1.655, -7.864e-5
-1.665, -7.893e-5
-1.675, -7.913e-5
-1.685, -7.864e-5
-1.695, -7.913e-5
-1.705, -7.854e-5
-1.715, -7.815e-5
-1.725, -7.795e-5
-1.735, -7.854e-5
-1.745, -7.834e-5
-1.755, -7.766e-5
-1.765, -7.825e-5
-1.775, -7.815e-5
-1.785, -7.805e-5
-1.795, -7.775e-5
-1.805, -7.785e-5
-1.815, -7.825e-5
-1.825, -7.815e-5
-1.835, -7.854e-5
-1.845, -7.884e-5
-1.855, -7.815e-5
-1.865, -7.834e-5
-1.875, -7.864e-5
-1.885, -7.805e-5
-1.895, -7.844e-5
-1.905, -7.854e-5
-1.915, -7.775e-5
-1.925, -7.805e-5
-1.935, -7.785e-5
-1.945, -7.795e-5
-1.955, -7.834e-5
-1.965, -7.736e-5
-1.975, -7.815e-5
-1.985, -7.766e-5
-1.995, -7.795e-5
-2.005, -7.766e-5
-2.015, -7.766e-5
-2.025, -7.805e-5
-2.035, -7.775e-5
-2.045, -7.805e-5
-2.055, -7.864e-5
-2.065, -7.834e-5
-2.075, -7.854e-5
-2.085, -7.756e-5
-2.095, -7.815e-5
-2.105, -7.825e-5
-2.115, -7.825e-5
-2.125, -7.815e-5
-2.135, -7.785e-5
-2.145, -7.756e-5
-2.155, -7.697e-5
-2.165, -7.805e-5
-2.175, -7.854e-5
-2.185, -7.805e-5
-2.195, -7.844e-5
-2.195, -7.608e-5
-2.185, -7.618e-5
-2.175, -7.569e-5
-2.165, -7.569e-5
-2.155, -7.540e-5
-2.145, -7.540e-5
-2.135, -7.579e-5
-2.125, -7.559e-5
-2.115, -7.608e-5
-2.105, -7.540e-5
-2.095, -7.540e-5
-2.085, -7.550e-5
-2.075, -7.569e-5
-2.065, -7.510e-5
-2.055, -7.658e-5
-2.045, -7.599e-5
-2.035, -7.599e-5
-2.025, -7.608e-5
-2.015, -7.697e-5
-2.005, -7.618e-5
-1.995, -7.608e-5
-1.985, -7.589e-5
-1.975, -7.618e-5
-1.965, -7.658e-5
-1.955, -7.648e-5
-1.945, -7.697e-5
-1.935, -7.697e-5
-1.925, -7.648e-5
-1.915, -7.677e-5
-1.905, -7.648e-5
-1.895, -7.658e-5
-1.885, -7.589e-5
-1.875, -7.628e-5
-1.865, -7.677e-5
-1.855, -7.628e-5
-1.845, -7.697e-5
-1.835, -7.628e-5
-1.825, -7.697e-5
-1.815, -7.658e-5
-1.805, -7.667e-5
-1.795, -7.579e-5
-1.785, -7.628e-5
-1.775, -7.707e-5
-1.765, -7.618e-5
-1.755, -7.648e-5
-1.745, -7.707e-5
-1.735, -7.697e-5
-1.725, -7.707e-5
-1.715, -7.775e-5
-1.705, -7.736e-5
-1.695, -7.766e-5
-1.685, -7.775e-5
-1.675, -7.717e-5
-1.665, -7.667e-5
-1.655, -7.658e-5
-1.645, -7.677e-5
-1.635, -7.618e-5
-1.625, -7.667e-5
-1.615, -7.746e-5
-1.605, -7.756e-5
-1.595, -7.785e-5
-1.585, -7.628e-5
-1.575, -7.677e-5
-1.565, -7.648e-5
-1.555, -7.726e-5
-1.545, -7.697e-5
-1.535, -7.667e-5
-1.525, -7.717e-5
-1.515, -7.775e-5
-1.505, -7.795e-5
-1.495, -7.736e-5
-1.485, -7.756e-5
-1.475, -7.736e-5
-1.465, -7.736e-5
-1.455, -7.805e-5
-1.445, -7.736e-5
-1.435, -7.785e-5
-1.425, -7.717e-5
-1.415, -7.736e-5
-1.405, -7.766e-5
-1.395, -7.815e-5
-1.385, -7.756e-5
-1.375, -7.746e-5
-1.365, -7.815e-5
-1.355, -7.775e-5
-1.345, -7.756e-5
-1.335, -7.775e-5
-1.325, -7.775e-5
-1.315, -7.815e-5
-1.305, -7.775e-5
-1.295, -7.815e-5
-1.285, -7.795e-5
-1.275, -7.775e-5
-1.265, -7.746e-5
-1.255, -7.785e-5
-1.245, -7.815e-5
-1.235, -7.815e-5
-1.225, -7.736e-5
-1.215, -7.815e-5
-1.205, -7.854e-5
-1.195, -7.874e-5
-1.185, -7.844e-5
-1.175, -7.825e-5
-1.165, -7.834e-5
-1.155, -7.775e-5
-1.145, -7.834e-5
-1.135, -7.864e-5
-1.125, -7.785e-5
-1.115, -7.844e-5
-1.105, -7.854e-5
-1.095, -7.854e-5
-1.085, -7.884e-5
-1.075, -7.825e-5
-1.065, -7.864e-5
-1.055, -7.854e-5
-1.045, -7.874e-5
-1.035, -7.913e-5
-1.025, -7.854e-5
-1.015, -7.834e-5
-1.005, -7.854e-5
-0.995, -7.933e-5
-0.985, -7.854e-5
-0.975, -7.923e-5
-0.965, -7.893e-5
-0.955, -7.923e-5
-0.945, -7.913e-5
-0.935, -7.864e-5
-0.925, -7.913e-5
-0.915, -7.884e-5
-0.905, -7.962e-5
-0.895, -7.903e-5
-0.885, -7.903e-5
-0.875, -7.942e-5
-0.865, -7.933e-5
-0.855, -7.942e-5
-0.845, -7.962e-5
-0.835, -7.893e-5
-0.825, -7.933e-5
-0.815, -7.884e-5
-0.805, -7.923e-5
-0.795, -7.893e-5
-0.785, -7.893e-5
-0.775, -7.893e-5
-0.765, -7.933e-5
-0.755, -7.893e-5
-0.745, -7.903e-5
-0.735, -7.864e-5
-0.725, -7.933e-5
-0.715, -7.933e-5
-0.705, -7.923e-5
-0.695, -7.913e-5
-0.685, -7.903e-5
-0.675, -7.923e-5
-0.665, -7.942e-5
-0.655, -7.923e-5
-0.645, -7.913e-5
-0.635, -7.972e-5
-0.625, -8.011e-5
-0.615, -7.962e-5
-0.605, -7.923e-5
-0.595, -7.982e-5
-0.585, -7.972e-5
-0.575, -7.962e-5
-0.565, -7.952e-5
-0.555, -7.992e-5
-0.545, -8.031e-5
-0.535, -8.031e-5
-0.525, -7.952e-5
-0.515, -7.942e-5
-0.505, -7.913e-5
-0.495, -7.982e-5
-0.485, -7.962e-5
-0.475, -7.942e-5
-0.465, -7.992e-5
-0.455, -8.021e-5
-0.445, -7.962e-5
-0.435, -7.992e-5
-0.425, -8.021e-5
-0.415, -8.021e-5
-0.405, -7.972e-5
-0.395, -7.962e-5
-0.385, -8.001e-5
-0.375, -7.962e-5
-0.365, -7.952e-5
-0.355, -7.942e-5
-0.345, -7.923e-5
-0.335, -7.972e-5
-0.325, -8.051e-5
-0.315, -8.041e-5
-0.305, -7.992e-5
-0.295, -8.021e-5
-0.285, -8.011e-5
-0.275, -8.100e-5
-0.265, -8.041e-5
-0.255, -8.021e-5
-0.245, -7.982e-5
-0.235, -7.992e-5
-0.225, -7.942e-5
-0.215, -7.972e-5
-0.205, -7.992e-5
-0.195, -7.982e-5
-0.185, -8.011e-5
-0.175, -8.051e-5
-0.165, -8.011e-5
-0.155, -8.051e-5
-0.145, -8.001e-5
-0.135, -8.001e-5
-0.125, -8.021e-5
-0.115, -7.992e-5
-0.105, -7.923e-5
-0.095, -7.962e-5
-0.085, -8.011e-5
-0.075, -8.011e-5
-0.065, -8.090e-5
-0.055, -8.070e-5
-0.045, -8.070e-5
-0.035, -8.070e-5
-0.025, -8.070e-5
-0.015, -7.982e-5
-0.005, -8.051e-5
