May 24, 2025   12:44:20
Linear Sweep Voltammetry
File: c:\python\win\device_jules\experiment_results\{{project_name}}_lsv.bin
Data Source:  Experiment
Instrument Model:  CHI760E
Header: CHI760E LSV
Note: 

Init E (V) = 0
Final E (V) = -2.2
Scan Rate (V/s) = 0.2
Sample Interval (V) = 0.01
Quiet Time (sec) = 2
Sensitivity (A/V) = 0.1

Ep = -0.825V
ip = -4.322e-7A
Ah = -6.237e-8C

Ep = -1.855V
ip = -1.572e-7A
Ah = -4.420e-8C

Potential/V, Current/A

-0.005, -7.216e-5
-0.015, -7.176e-5
-0.025, -7.225e-5
-0.035, -7.196e-5
-0.045, -7.235e-5
-0.055, -7.255e-5
-0.065, -7.235e-5
-0.075, -7.265e-5
-0.085, -7.216e-5
-0.095, -7.235e-5
-0.105, -7.333e-5
-0.115, -7.294e-5
-0.125, -7.314e-5
-0.135, -7.284e-5
-0.145, -7.294e-5
-0.155, -7.383e-5
-0.165, -7.412e-5
-0.175, -7.422e-5
-0.185, -7.343e-5
-0.195, -7.383e-5
-0.205, -7.324e-5
-0.215, -7.353e-5
-0.225, -7.343e-5
-0.235, -7.343e-5
-0.245, -7.333e-5
-0.255, -7.314e-5
-0.265, -7.314e-5
-0.275, -7.284e-5
-0.285, -7.265e-5
-0.295, -7.284e-5
-0.305, -7.284e-5
-0.315, -7.265e-5
-0.325, -7.304e-5
-0.335, -7.225e-5
-0.345, -7.284e-5
-0.355, -7.304e-5
-0.365, -7.324e-5
-0.375, -7.314e-5
-0.385, -7.314e-5
-0.395, -7.324e-5
-0.405, -7.284e-5
-0.415, -7.383e-5
-0.425, -7.265e-5
-0.435, -7.363e-5
-0.445, -7.353e-5
-0.455, -7.343e-5
-0.465, -7.324e-5
-0.475, -7.343e-5
-0.485, -7.363e-5
-0.495, -7.343e-5
-0.505, -7.363e-5
-0.515, -7.412e-5
-0.525, -7.343e-5
-0.535, -7.363e-5
-0.545, -7.373e-5
-0.555, -7.383e-5
-0.565, -7.383e-5
-0.575, -7.383e-5
-0.585, -7.333e-5
-0.595, -7.392e-5
-0.605, -7.324e-5
-0.615, -7.363e-5
-0.625, -7.432e-5
-0.635, -7.363e-5
-0.645, -7.343e-5
-0.655, -7.392e-5
-0.665, -7.373e-5
-0.675, -7.392e-5
-0.685, -7.412e-5
-0.695, -7.442e-5
-0.705, -7.412e-5
-0.715, -7.461e-5
-0.725, -7.442e-5
-0.735, -7.412e-5
-0.745, -7.412e-5
-0.755, -7.412e-5
-0.765, -7.383e-5
-0.775, -7.383e-5
-0.785, -7.481e-5
-0.795, -7.392e-5
-0.805, -7.383e-5
-0.815, -7.442e-5
-0.825, -7.491e-5
-0.835, -7.451e-5
-0.845, -7.451e-5
-0.855, -7.392e-5
-0.865, -7.442e-5
-0.875, -7.451e-5
-0.885, -7.500e-5
-0.895, -7.422e-5
-0.905, -7.461e-5
-0.915, -7.442e-5
-0.925, -7.422e-5
-0.935, -7.412e-5
-0.945, -7.461e-5
-0.955, -7.422e-5
-0.965, -7.432e-5
-0.975, -7.422e-5
-0.985, -7.442e-5
-0.995, -7.442e-5
-1.005, -7.392e-5
-1.015, -7.461e-5
-1.025, -7.373e-5
-1.035, -7.422e-5
-1.045, -7.442e-5
-1.055, -7.461e-5
-1.065, -7.402e-5
-1.075, -7.422e-5
-1.085, -7.383e-5
-1.095, -7.412e-5
-1.105, -7.402e-5
-1.115, -7.442e-5
-1.125, -7.402e-5
-1.135, -7.442e-5
-1.145, -7.412e-5
-1.155, -7.402e-5
-1.165, -7.461e-5
-1.175, -7.451e-5
-1.185, -7.461e-5
-1.195, -7.550e-5
-1.205, -7.491e-5
-1.215, -7.461e-5
-1.225, -7.383e-5
-1.235, -7.461e-5
-1.245, -7.363e-5
-1.255, -7.432e-5
-1.265, -7.412e-5
-1.275, -7.432e-5
-1.285, -7.442e-5
-1.295, -7.471e-5
-1.305, -7.402e-5
-1.315, -7.402e-5
-1.325, -7.442e-5
-1.335, -7.432e-5
-1.345, -7.383e-5
-1.355, -7.422e-5
-1.365, -7.383e-5
-1.375, -7.392e-5
-1.385, -7.373e-5
-1.395, -7.343e-5
-1.405, -7.422e-5
-1.415, -7.363e-5
-1.425, -7.304e-5
-1.435, -7.451e-5
-1.445, -7.383e-5
-1.455, -7.383e-5
-1.465, -7.412e-5
-1.475, -7.412e-5
-1.485, -7.353e-5
-1.495, -7.333e-5
-1.505, -7.383e-5
-1.515, -7.314e-5
-1.525, -7.333e-5
-1.535, -7.333e-5
-1.545, -7.392e-5
-1.555, -7.392e-5
-1.565, -7.304e-5
-1.575, -7.304e-5
-1.585, -7.353e-5
-1.595, -7.333e-5
-1.605, -7.353e-5
-1.615, -7.304e-5
-1.625, -7.333e-5
-1.635, -7.304e-5
-1.645, -7.392e-5
-1.655, -7.363e-5
-1.665, -7.343e-5
-1.675, -7.383e-5
-1.685, -7.353e-5
-1.695, -7.461e-5
-1.705, -7.422e-5
-1.715, -7.383e-5
-1.725, -7.343e-5
-1.735, -7.392e-5
-1.745, -7.383e-5
-1.755, -7.343e-5
-1.765, -7.353e-5
-1.775, -7.383e-5
-1.785, -7.392e-5
-1.795, -7.383e-5
-1.805, -7.373e-5
-1.815, -7.392e-5
-1.825, -7.343e-5
-1.835, -7.333e-5
-1.845, -7.383e-5
-1.855, -7.422e-5
-1.865, -7.343e-5
-1.875, -7.304e-5
-1.885, -7.343e-5
-1.895, -7.294e-5
-1.905, -7.304e-5
-1.915, -7.402e-5
-1.925, -7.333e-5
-1.935, -7.265e-5
-1.945, -7.314e-5
-1.955, -7.343e-5
-1.965, -7.324e-5
-1.975, -7.284e-5
-1.985, -7.265e-5
-1.995, -7.304e-5
-2.005, -7.304e-5
-2.015, -7.353e-5
-2.025, -7.314e-5
-2.035, -7.324e-5
-2.045, -7.304e-5
-2.055, -7.294e-5
-2.065, -7.343e-5
-2.075, -7.353e-5
-2.085, -7.363e-5
-2.095, -7.333e-5
-2.105, -7.324e-5
-2.115, -7.373e-5
-2.125, -7.275e-5
-2.135, -7.383e-5
-2.145, -7.265e-5
-2.155, -7.363e-5
-2.165, -7.343e-5
-2.175, -7.304e-5
-2.185, -7.333e-5
-2.195, -7.314e-5
